# rtl-power-fftw output
# galactisch: 028
# antenne: 201-31
# dark: dark20170829153246
# data: A028_20170919193958
# -b: 500
# -t: 150
# -g: 300
# -p: 0
# Acquisition start: 2017-09-19 19:39:59 UTC
# Acquisition end: 2017-09-19 19:42:31 UTC
#
# frequency [Hz] power spectral density [dB/Hz]
1.41940575e+09 2.54309
1.41940975e+09 2.52858
1.41941375e+09 2.53468
1.41941775e+09 2.53132
1.41942175e+09 2.52512
1.41942575e+09 2.53955
1.41942975e+09 2.51992
1.41943375e+09 2.50088
1.41943775e+09 2.49402
1.41944175e+09 2.48718
1.41944575e+09 2.4847
1.41944975e+09 2.46669
1.41945375e+09 2.47333
1.41945775e+09 2.46977
1.41946175e+09 2.45189
1.41946575e+09 2.43695
1.41946975e+09 2.44849
1.41947375e+09 2.4224
1.41947775e+09 2.41632
1.41948175e+09 2.41085
1.41948575e+09 2.38419
1.41948975e+09 2.37813
1.41949375e+09 2.37771
1.41949775e+09 2.37437
1.41950175e+09 2.36275
1.41950575e+09 2.35516
1.41950975e+09 2.34078
1.41951375e+09 2.35457
1.41951775e+09 2.33256
1.41952175e+09 2.32544
1.41952575e+09 2.32236
1.41952975e+09 2.32324
1.41953375e+09 2.31648
1.41953775e+09 2.3113
1.41954175e+09 2.30901
1.41954575e+09 2.30251
1.41954975e+09 2.30543
1.41955375e+09 2.31694
1.41955775e+09 2.31268
1.41956175e+09 2.30284
1.41956575e+09 2.303
1.41956975e+09 2.29576
1.41957375e+09 2.30191
1.41957775e+09 2.30735
1.41958175e+09 2.30629
1.41958575e+09 2.29945
1.41958975e+09 2.31822
1.41959375e+09 2.29224
1.41959775e+09 2.29445
1.41960175e+09 2.27733
1.41960575e+09 2.30715
1.41960975e+09 2.29985
1.41961375e+09 2.3195
1.41961775e+09 2.31351
1.41962175e+09 2.31928
1.41962575e+09 2.31927
1.41962975e+09 2.3208
1.41963375e+09 2.33379
1.41963775e+09 2.31682
1.41964175e+09 2.31814
1.41964575e+09 2.31279
1.41964975e+09 2.30676
1.41965375e+09 2.33447
1.41965775e+09 2.32584
1.41966175e+09 2.32962
1.41966575e+09 2.34064
1.41966975e+09 2.32571
1.41967375e+09 2.34047
1.41967775e+09 2.32723
1.41968175e+09 2.34979
1.41968575e+09 2.34826
1.41968975e+09 2.36168
1.41969375e+09 2.36411
1.41969775e+09 2.35813
1.41970175e+09 2.3397
1.41970575e+09 2.35316
1.41970975e+09 2.35628
1.41971375e+09 2.34855
1.41971775e+09 2.35335
1.41972175e+09 2.35657
1.41972575e+09 2.3601
1.41972975e+09 2.35441
1.41973375e+09 2.36169
1.41973775e+09 2.34706
1.41974175e+09 2.36566
1.41974575e+09 2.36503
1.41974975e+09 2.35861
1.41975375e+09 2.35358
1.41975775e+09 2.37473
1.41976175e+09 2.36068
1.41976575e+09 2.36509
1.41976975e+09 2.38735
1.41977375e+09 2.3739
1.41977775e+09 2.38104
1.41978175e+09 2.40959
1.41978575e+09 2.40014
1.41978975e+09 2.40633
1.41979375e+09 2.41469
1.41979775e+09 2.42146
1.41980175e+09 2.4246
1.41980575e+09 2.41585
1.41980975e+09 2.44418
1.41981375e+09 2.44732
1.41981775e+09 2.46318
1.41982175e+09 2.46877
1.41982575e+09 2.47669
1.41982975e+09 2.50549
1.41983375e+09 2.49391
1.41983775e+09 2.50652
1.41984175e+09 2.5214
1.41984575e+09 2.53861
1.41984975e+09 2.53773
1.41985375e+09 2.54235
1.41985775e+09 2.55836
1.41986175e+09 2.57458
1.41986575e+09 2.57667
1.41986975e+09 2.5739
1.41987375e+09 2.58804
1.41987775e+09 2.60101
1.41988175e+09 2.60748
1.41988575e+09 2.6112
1.41988975e+09 2.62291
1.41989375e+09 2.61651
1.41989775e+09 2.61796
1.41990175e+09 2.62167
1.41990575e+09 2.62419
1.41990975e+09 2.62551
1.41991375e+09 2.65171
1.41991775e+09 2.64955
1.41992175e+09 2.64646
1.41992575e+09 2.65431
1.41992975e+09 2.66612
1.41993375e+09 2.66438
1.41993775e+09 2.65921
1.41994175e+09 2.65304
1.41994575e+09 2.64036
1.41994975e+09 2.66774
1.41995375e+09 2.6636
1.41995775e+09 2.67843
1.41996175e+09 2.67975
1.41996575e+09 2.66378
1.41996975e+09 2.6813
1.41997375e+09 2.69862
1.41997775e+09 2.68911
1.41998175e+09 2.68028
1.41998575e+09 2.6799
1.41998975e+09 2.68863
1.41999375e+09 2.70425
1.41999775e+09 2.70552
1.42000175e+09 2.69866
1.42000575e+09 2.71509
1.42000975e+09 2.7006
1.42001375e+09 2.70075
1.42001775e+09 2.68652
1.42002175e+09 2.66686
1.42002575e+09 2.6918
1.42002975e+09 2.69483
1.42003375e+09 2.6912
1.42003775e+09 2.68374
1.42004175e+09 2.70324
1.42004575e+09 2.69848
1.42004975e+09 2.69534
1.42005375e+09 2.68718
1.42005775e+09 2.67993
1.42006175e+09 2.69746
1.42006575e+09 2.69994
1.42006975e+09 2.69545
1.42007375e+09 2.71107
1.42007775e+09 2.70508
1.42008175e+09 2.72898
1.42008575e+09 2.73325
1.42008975e+09 2.73589
1.42009375e+09 2.76067
1.42009775e+09 2.76168
1.42010175e+09 2.7784
1.42010575e+09 2.78549
1.42010975e+09 2.8033
1.42011375e+09 2.8091
1.42011775e+09 2.80421
1.42012175e+09 2.82132
1.42012575e+09 2.83317
1.42012975e+09 2.81532
1.42013375e+09 2.82459
1.42013775e+09 2.83874
1.42014175e+09 2.85109
1.42014575e+09 2.82734
1.42014975e+09 2.7905
1.42015375e+09 2.70072
1.42015775e+09 2.85437
1.42016175e+09 2.85526
1.42016575e+09 2.86354
1.42016975e+09 2.84465
1.42017375e+09 2.85759
1.42017775e+09 2.85646
1.42018175e+09 2.85576
1.42018575e+09 2.84387
1.42018975e+09 2.85243
1.42019375e+09 2.83984
1.42019775e+09 2.85262
1.42020175e+09 2.87472
1.42020575e+09 2.88805
1.42020975e+09 2.88878
1.42021375e+09 2.89881
1.42021775e+09 2.91454
1.42022175e+09 2.93261
1.42022575e+09 2.94789
1.42022975e+09 2.96279
1.42023375e+09 2.97349
1.42023775e+09 2.9798
1.42024175e+09 2.9827
1.42024575e+09 2.97966
1.42024975e+09 3.01782
1.42025375e+09 2.97973
1.42025775e+09 2.9852
1.42026175e+09 3.00318
1.42026575e+09 2.98907
1.42026975e+09 2.98846
1.42027375e+09 2.99092
1.42027775e+09 3.02996
1.42028175e+09 3.05557
1.42028575e+09 3.06147
1.42028975e+09 3.10467
1.42029375e+09 3.09962
1.42029775e+09 3.10587
1.42030175e+09 3.13179
1.42030575e+09 3.12626
1.42030975e+09 3.14139
1.42031375e+09 3.12626
1.42031775e+09 3.13942
1.42032175e+09 3.14088
1.42032575e+09 3.16291
1.42032975e+09 3.16807
1.42033375e+09 3.17423
1.42033775e+09 3.17174
1.42034175e+09 3.17209
1.42034575e+09 3.14968
1.42034975e+09 3.12412
1.42035375e+09 3.0787
1.42035775e+09 3.00249
1.42036175e+09 2.92441
1.42036575e+09 2.85333
1.42036975e+09 2.8242
1.42037375e+09 2.75658
1.42037775e+09 2.74262
1.42038175e+09 2.71661
1.42038575e+09 2.70603
1.42038975e+09 2.69561
1.42039375e+09 2.67945
1.42039775e+09 2.67695
1.42040175e+09 2.67059
1.42040575e+09 2.67653
1.42040975e+09 2.68257
1.42041375e+09 2.66709
1.42041775e+09 2.67527
1.42042175e+09 2.67744
1.42042575e+09 2.65844
1.42042975e+09 2.69611
1.42043375e+09 2.67349
1.42043775e+09 2.69148
1.42044175e+09 2.6948
1.42044575e+09 2.70102
1.42044975e+09 2.69282
1.42045375e+09 2.70722
1.42045775e+09 2.69651
1.42046175e+09 2.71806
1.42046575e+09 2.73176
1.42046975e+09 2.73554
1.42047375e+09 2.72553
1.42047775e+09 2.72447
1.42048175e+09 2.75506
1.42048575e+09 2.75587
1.42048975e+09 2.76174
1.42049375e+09 2.76422
1.42049775e+09 2.78484
1.42050175e+09 2.78553
1.42050575e+09 2.79643
1.42050975e+09 2.7971
1.42051375e+09 2.78927
1.42051775e+09 2.7994
1.42052175e+09 2.79324
1.42052575e+09 2.80328
1.42052975e+09 2.78746
1.42053375e+09 2.79653
1.42053775e+09 2.79243
1.42054175e+09 2.78683
1.42054575e+09 2.78079
1.42054975e+09 2.78203
1.42055375e+09 2.79443
1.42055775e+09 2.7733
1.42056175e+09 2.77436
1.42056575e+09 2.76571
1.42056975e+09 2.76262
1.42057375e+09 2.75471
1.42057775e+09 2.73834
1.42058175e+09 2.72875
1.42058575e+09 2.712
1.42058975e+09 2.70985
1.42059375e+09 2.70803
1.42059775e+09 2.69063
1.42060175e+09 2.68822
1.42060575e+09 2.68982
1.42060975e+09 2.678
1.42061375e+09 2.68878
1.42061775e+09 2.67413
1.42062175e+09 2.67965
1.42062575e+09 2.65818
1.42062975e+09 2.67269
1.42063375e+09 2.64648
1.42063775e+09 2.65802
1.42064175e+09 2.64131
1.42064575e+09 2.63279
1.42064975e+09 2.63443
1.42065375e+09 2.62155
1.42065775e+09 2.62785
1.42066175e+09 2.62768
1.42066575e+09 2.62339
1.42066975e+09 2.6336
1.42067375e+09 2.61633
1.42067775e+09 2.60755
1.42068175e+09 2.61619
1.42068575e+09 2.61908
1.42068975e+09 2.61284
1.42069375e+09 2.61499
1.42069775e+09 2.62112
1.42070175e+09 2.63131
1.42070575e+09 2.61734
1.42070975e+09 2.61896
1.42071375e+09 2.63396
1.42071775e+09 2.62598
1.42072175e+09 2.62025
1.42072575e+09 2.64075
1.42072975e+09 2.63114
1.42073375e+09 2.62944
1.42073775e+09 2.62411
1.42074175e+09 2.61102
1.42074575e+09 2.62242
1.42074975e+09 2.64203
1.42075375e+09 2.62161
1.42075775e+09 2.6269
1.42076175e+09 2.63674
1.42076575e+09 2.62649
1.42076975e+09 2.63174
1.42077375e+09 2.6388
1.42077775e+09 2.62641
1.42078175e+09 2.62752
1.42078575e+09 2.64609
1.42078975e+09 2.6451
1.42079375e+09 2.62545
1.42079775e+09 2.64055
1.42080175e+09 2.65353
1.42080575e+09 2.65897
1.42080975e+09 2.6471
1.42081375e+09 2.63196
1.42081775e+09 2.63554
1.42082175e+09 2.6112
1.42082575e+09 2.63078
1.42082975e+09 2.62481
1.42083375e+09 2.64655
1.42083775e+09 2.64662
1.42084175e+09 2.64328
1.42084575e+09 2.64669
1.42084975e+09 2.64067
1.42085375e+09 2.64258
1.42085775e+09 2.63307
1.42086175e+09 2.64509
1.42086575e+09 2.65245
1.42086975e+09 2.65994
1.42087375e+09 2.6368
1.42087775e+09 2.63624
1.42088175e+09 2.6565
1.42088575e+09 2.65246
1.42088975e+09 2.64206
1.42089375e+09 2.62632
1.42089775e+09 2.64619
1.42090175e+09 2.6427
1.42090575e+09 2.65272
1.42090975e+09 2.65001
1.42091375e+09 2.64532
1.42091775e+09 2.64474
1.42092175e+09 2.66013
1.42092575e+09 2.66766
1.42092975e+09 2.66226
1.42093375e+09 2.67321
1.42093775e+09 2.65726
1.42094175e+09 2.66611
1.42094575e+09 2.64941
1.42094975e+09 2.61916
1.42095375e+09 2.6444
1.42095775e+09 2.64762
1.42096175e+09 2.66548
1.42096575e+09 2.66826
1.42096975e+09 2.66778
1.42097375e+09 2.66393
1.42097775e+09 2.64013
1.42098175e+09 2.65145
1.42098575e+09 2.64781
1.42098975e+09 2.65968
1.42099375e+09 2.65506
1.42099775e+09 2.66217
1.42100175e+09 2.65482
1.42100575e+09 2.65677
1.42100975e+09 2.66977
1.42101375e+09 2.66229
1.42101775e+09 2.66328
1.42102175e+09 2.66534
1.42102575e+09 2.66728
1.42102975e+09 2.67645
1.42103375e+09 2.65285
1.42103775e+09 2.6674
1.42104175e+09 2.67439
1.42104575e+09 2.67684
1.42104975e+09 2.6629
1.42105375e+09 2.67347
1.42105775e+09 2.68423
1.42106175e+09 2.66833
1.42106575e+09 2.6563
1.42106975e+09 2.67535
1.42107375e+09 2.6997
1.42107775e+09 2.68938
1.42108175e+09 2.68203
1.42108575e+09 2.67475
1.42108975e+09 2.68196
1.42109375e+09 2.68305
1.42109775e+09 2.68589
1.42110175e+09 2.68418
1.42110575e+09 2.66768
1.42110975e+09 2.67998
1.42111375e+09 2.65479
1.42111775e+09 2.66683
1.42112175e+09 2.67525
1.42112575e+09 2.67257
1.42112975e+09 2.68282
1.42113375e+09 2.66253
1.42113775e+09 2.68907
1.42114175e+09 2.66925
1.42114575e+09 2.66148
1.42114975e+09 2.68234
1.42115375e+09 2.65594
1.42115775e+09 2.66447
1.42116175e+09 2.67992
1.42116575e+09 2.67599
1.42116975e+09 2.66497
1.42117375e+09 2.67514
1.42117775e+09 2.66454
1.42118175e+09 2.66498
1.42118575e+09 2.6608
1.42118975e+09 2.66547
1.42119375e+09 2.66677
1.42119775e+09 2.669
1.42120175e+09 2.68049
1.42120575e+09 2.66411
1.42120975e+09 2.66881
1.42121375e+09 2.66697
1.42121775e+09 2.674
1.42122175e+09 2.67676
1.42122575e+09 2.66984
1.42122975e+09 2.66122
1.42123375e+09 2.66606
1.42123775e+09 2.66829
1.42124175e+09 2.66316
1.42124575e+09 2.65951
1.42124975e+09 2.67287
1.42125375e+09 2.66484
1.42125775e+09 2.645
1.42126175e+09 2.66085
1.42126575e+09 2.65216
1.42126975e+09 2.64854
1.42127375e+09 2.65631
1.42127775e+09 2.6479
1.42128175e+09 2.66173
1.42128575e+09 2.6621
1.42128975e+09 2.63776
1.42129375e+09 2.65547
1.42129775e+09 2.6329
1.42130175e+09 2.63201
1.42130575e+09 2.64017
1.42130975e+09 2.6304
1.42131375e+09 2.62789
1.42131775e+09 2.64067
1.42132175e+09 2.63136
1.42132575e+09 2.62353
1.42132975e+09 2.61248
1.42133375e+09 2.62093
1.42133775e+09 2.62289
1.42134175e+09 2.61949
1.42134575e+09 2.60043
1.42134975e+09 2.62167
1.42135375e+09 2.59038
1.42135775e+09 2.59285
1.42136175e+09 2.59077
1.42136575e+09 2.58206
1.42136975e+09 2.57822
1.42137375e+09 2.59886
1.42137775e+09 2.57004
1.42138175e+09 2.58099
1.42138575e+09 2.57408
1.42138975e+09 2.57641
1.42139375e+09 2.56359
1.42139775e+09 2.57021
1.42140175e+09 2.55582


