# rtl-power-fftw output
# galactisch: 132
# antenne: 49-56
# dark: dark20170829153246
# data: A132_20170919213826
# -b: 500
# -t: 150
# -g: 300
# -p: 0
# Acquisition start: 2017-09-19 21:38:27 UTC
# Acquisition end: 2017-09-19 21:40:58 UTC
#
# frequency [Hz] power spectral density [dB/Hz]
1.41940575e+09 2.09523
1.41940975e+09 2.05581
1.41941375e+09 2.08407
1.41941775e+09 2.08165
1.41942175e+09 2.07553
1.41942575e+09 2.07226
1.41942975e+09 2.06854
1.41943375e+09 2.04128
1.41943775e+09 2.02892
1.41944175e+09 2.01806
1.41944575e+09 2.01107
1.41944975e+09 1.99539
1.41945375e+09 1.98509
1.41945775e+09 1.97447
1.41946175e+09 1.96483
1.41946575e+09 1.94306
1.41946975e+09 1.94642
1.41947375e+09 1.91827
1.41947775e+09 1.91889
1.41948175e+09 1.90232
1.41948575e+09 1.89803
1.41948975e+09 1.88307
1.41949375e+09 1.87234
1.41949775e+09 1.86021
1.41950175e+09 1.84654
1.41950575e+09 1.85555
1.41950975e+09 1.83512
1.41951375e+09 1.83403
1.41951775e+09 1.82479
1.41952175e+09 1.81316
1.41952575e+09 1.82194
1.41952975e+09 1.81788
1.41953375e+09 1.80277
1.41953775e+09 1.80663
1.41954175e+09 1.80429
1.41954575e+09 1.79326
1.41954975e+09 1.79542
1.41955375e+09 1.78882
1.41955775e+09 1.80246
1.41956175e+09 1.79596
1.41956575e+09 1.80387
1.41956975e+09 1.78818
1.41957375e+09 1.79664
1.41957775e+09 1.78991
1.41958175e+09 1.80099
1.41958575e+09 1.8093
1.41958975e+09 1.79152
1.41959375e+09 1.78527
1.41959775e+09 1.78058
1.41960175e+09 1.785
1.41960575e+09 1.79881
1.41960975e+09 1.78937
1.41961375e+09 1.81607
1.41961775e+09 1.80846
1.41962175e+09 1.81502
1.41962575e+09 1.80831
1.41962975e+09 1.82271
1.41963375e+09 1.80377
1.41963775e+09 1.81386
1.41964175e+09 1.81018
1.41964575e+09 1.81197
1.41964975e+09 1.81777
1.41965375e+09 1.82241
1.41965775e+09 1.82186
1.41966175e+09 1.81632
1.41966575e+09 1.83093
1.41966975e+09 1.80975
1.41967375e+09 1.82773
1.41967775e+09 1.81956
1.41968175e+09 1.84489
1.41968575e+09 1.83916
1.41968975e+09 1.85708
1.41969375e+09 1.86094
1.41969775e+09 1.85007
1.41970175e+09 1.83965
1.41970575e+09 1.84545
1.41970975e+09 1.83852
1.41971375e+09 1.84888
1.41971775e+09 1.84064
1.41972175e+09 1.83399
1.41972575e+09 1.85277
1.41972975e+09 1.84377
1.41973375e+09 1.85663
1.41973775e+09 1.83605
1.41974175e+09 1.85097
1.41974575e+09 1.86178
1.41974975e+09 1.848
1.41975375e+09 1.83665
1.41975775e+09 1.84825
1.41976175e+09 1.85385
1.41976575e+09 1.84102
1.41976975e+09 1.85349
1.41977375e+09 1.86036
1.41977775e+09 1.85282
1.41978175e+09 1.87318
1.41978575e+09 1.8434
1.41978975e+09 1.87312
1.41979375e+09 1.86187
1.41979775e+09 1.87983
1.41980175e+09 1.87027
1.41980575e+09 1.85508
1.41980975e+09 1.87102
1.41981375e+09 1.87387
1.41981775e+09 1.88441
1.41982175e+09 1.86612
1.41982575e+09 1.88644
1.41982975e+09 1.89295
1.41983375e+09 1.87279
1.41983775e+09 1.86747
1.41984175e+09 1.89394
1.41984575e+09 1.88484
1.41984975e+09 1.88224
1.41985375e+09 1.88657
1.41985775e+09 1.88743
1.41986175e+09 1.89318
1.41986575e+09 1.90019
1.41986975e+09 1.89367
1.41987375e+09 1.89447
1.41987775e+09 1.90443
1.41988175e+09 1.89408
1.41988575e+09 1.89803
1.41988975e+09 1.89685
1.41989375e+09 1.89974
1.41989775e+09 1.90142
1.41990175e+09 1.88966
1.41990575e+09 1.88941
1.41990975e+09 1.89615
1.41991375e+09 1.91575
1.41991775e+09 1.91953
1.41992175e+09 1.89401
1.41992575e+09 1.91008
1.41992975e+09 1.92159
1.41993375e+09 1.9236
1.41993775e+09 1.91161
1.41994175e+09 1.91061
1.41994575e+09 1.90301
1.41994975e+09 1.91126
1.41995375e+09 1.92201
1.41995775e+09 1.91408
1.41996175e+09 1.92826
1.41996575e+09 1.9128
1.41996975e+09 1.92262
1.41997375e+09 1.93686
1.41997775e+09 1.92367
1.41998175e+09 1.92485
1.41998575e+09 1.93206
1.41998975e+09 1.94155
1.41999375e+09 1.92723
1.41999775e+09 1.94104
1.42000175e+09 1.93379
1.42000575e+09 1.94514
1.42000975e+09 1.93639
1.42001375e+09 1.9377
1.42001775e+09 1.9338
1.42002175e+09 1.91451
1.42002575e+09 1.93721
1.42002975e+09 1.94014
1.42003375e+09 1.94485
1.42003775e+09 1.95012
1.42004175e+09 1.95324
1.42004575e+09 1.94677
1.42004975e+09 1.94859
1.42005375e+09 1.94074
1.42005775e+09 1.93743
1.42006175e+09 1.94972
1.42006575e+09 1.94325
1.42006975e+09 1.94713
1.42007375e+09 1.9545
1.42007775e+09 1.94189
1.42008175e+09 1.957
1.42008575e+09 1.95922
1.42008975e+09 1.9777
1.42009375e+09 1.97738
1.42009775e+09 1.96542
1.42010175e+09 1.96425
1.42010575e+09 1.97457
1.42010975e+09 1.95852
1.42011375e+09 1.97303
1.42011775e+09 1.98677
1.42012175e+09 1.9743
1.42012575e+09 1.98929
1.42012975e+09 1.9653
1.42013375e+09 1.95594
1.42013775e+09 1.98369
1.42014175e+09 1.98398
1.42014575e+09 1.96197
1.42014975e+09 1.91975
1.42015375e+09 1.83203
1.42015775e+09 1.97134
1.42016175e+09 2.00686
1.42016575e+09 1.97721
1.42016975e+09 1.98021
1.42017375e+09 1.99238
1.42017775e+09 1.98364
1.42018175e+09 1.98881
1.42018575e+09 1.99444
1.42018975e+09 1.99226
1.42019375e+09 1.97665
1.42019775e+09 1.97906
1.42020175e+09 1.98448
1.42020575e+09 1.98335
1.42020975e+09 1.99812
1.42021375e+09 1.95848
1.42021775e+09 1.98762
1.42022175e+09 1.97439
1.42022575e+09 1.96845
1.42022975e+09 1.97573
1.42023375e+09 1.96682
1.42023775e+09 1.97114
1.42024175e+09 1.95234
1.42024575e+09 1.94863
1.42024975e+09 1.94134
1.42025375e+09 1.93961
1.42025775e+09 1.92824
1.42026175e+09 1.93254
1.42026575e+09 1.92806
1.42026975e+09 1.93046
1.42027375e+09 1.91778
1.42027775e+09 1.95014
1.42028175e+09 1.96124
1.42028575e+09 1.95435
1.42028975e+09 1.98278
1.42029375e+09 1.98317
1.42029775e+09 1.98005
1.42030175e+09 2.00557
1.42030575e+09 2.01411
1.42030975e+09 2.0258
1.42031375e+09 2.02469
1.42031775e+09 2.03034
1.42032175e+09 2.04519
1.42032575e+09 2.03317
1.42032975e+09 2.05287
1.42033375e+09 2.04082
1.42033775e+09 2.05538
1.42034175e+09 2.06227
1.42034575e+09 2.04699
1.42034975e+09 2.06257
1.42035375e+09 2.05271
1.42035775e+09 2.0671
1.42036175e+09 2.04903
1.42036575e+09 2.04132
1.42036975e+09 2.06244
1.42037375e+09 2.04609
1.42037775e+09 2.04522
1.42038175e+09 2.05167
1.42038575e+09 2.05228
1.42038975e+09 2.04026
1.42039375e+09 2.05047
1.42039775e+09 2.05697
1.42040175e+09 2.05472
1.42040575e+09 2.0609
1.42040975e+09 2.06717
1.42041375e+09 2.05306
1.42041775e+09 2.05232
1.42042175e+09 2.07696
1.42042575e+09 2.05696
1.42042975e+09 2.07927
1.42043375e+09 2.07472
1.42043775e+09 2.07508
1.42044175e+09 2.10082
1.42044575e+09 2.09271
1.42044975e+09 2.10013
1.42045375e+09 2.11785
1.42045775e+09 2.13112
1.42046175e+09 2.13636
1.42046575e+09 2.1718
1.42046975e+09 2.1985
1.42047375e+09 2.21549
1.42047775e+09 2.26101
1.42048175e+09 2.33242
1.42048575e+09 2.39165
1.42048975e+09 2.46391
1.42049375e+09 2.53267
1.42049775e+09 2.60105
1.42050175e+09 2.6342
1.42050575e+09 2.6518
1.42050975e+09 2.66786
1.42051375e+09 2.67846
1.42051775e+09 2.69887
1.42052175e+09 2.70031
1.42052575e+09 2.71911
1.42052975e+09 2.71838
1.42053375e+09 2.73377
1.42053775e+09 2.73204
1.42054175e+09 2.72728
1.42054575e+09 2.71709
1.42054975e+09 2.72289
1.42055375e+09 2.73442
1.42055775e+09 2.71458
1.42056175e+09 2.70095
1.42056575e+09 2.68187
1.42056975e+09 2.66389
1.42057375e+09 2.62341
1.42057775e+09 2.57521
1.42058175e+09 2.55776
1.42058575e+09 2.524
1.42058975e+09 2.50482
1.42059375e+09 2.46387
1.42059775e+09 2.44013
1.42060175e+09 2.44304
1.42060575e+09 2.41713
1.42060975e+09 2.4059
1.42061375e+09 2.40605
1.42061775e+09 2.38779
1.42062175e+09 2.37987
1.42062575e+09 2.36896
1.42062975e+09 2.38585
1.42063375e+09 2.36871
1.42063775e+09 2.3869
1.42064175e+09 2.38759
1.42064575e+09 2.38605
1.42064975e+09 2.4015
1.42065375e+09 2.4203
1.42065775e+09 2.45066
1.42066175e+09 2.44616
1.42066575e+09 2.46729
1.42066975e+09 2.49299
1.42067375e+09 2.50126
1.42067775e+09 2.5121
1.42068175e+09 2.53594
1.42068575e+09 2.57557
1.42068975e+09 2.57586
1.42069375e+09 2.59395
1.42069775e+09 2.62815
1.42070175e+09 2.63178
1.42070575e+09 2.63989
1.42070975e+09 2.64898
1.42071375e+09 2.68346
1.42071775e+09 2.67668
1.42072175e+09 2.68815
1.42072575e+09 2.69144
1.42072975e+09 2.69726
1.42073375e+09 2.67959
1.42073775e+09 2.67027
1.42074175e+09 2.68291
1.42074575e+09 2.68531
1.42074975e+09 2.6856
1.42075375e+09 2.68907
1.42075775e+09 2.70788
1.42076175e+09 2.72446
1.42076575e+09 2.70368
1.42076975e+09 2.69729
1.42077375e+09 2.69837
1.42077775e+09 2.69252
1.42078175e+09 2.68012
1.42078575e+09 2.66008
1.42078975e+09 2.63834
1.42079375e+09 2.61394
1.42079775e+09 2.58924
1.42080175e+09 2.58552
1.42080575e+09 2.53964
1.42080975e+09 2.52876
1.42081375e+09 2.50444
1.42081775e+09 2.47531
1.42082175e+09 2.43889
1.42082575e+09 2.45044
1.42082975e+09 2.41972
1.42083375e+09 2.42187
1.42083775e+09 2.39215
1.42084175e+09 2.38836
1.42084575e+09 2.37301
1.42084975e+09 2.37917
1.42085375e+09 2.3562
1.42085775e+09 2.35939
1.42086175e+09 2.35899
1.42086575e+09 2.36753
1.42086975e+09 2.37887
1.42087375e+09 2.34972
1.42087775e+09 2.34697
1.42088175e+09 2.37521
1.42088575e+09 2.36611
1.42088975e+09 2.34737
1.42089375e+09 2.33133
1.42089775e+09 2.3517
1.42090175e+09 2.34205
1.42090575e+09 2.36106
1.42090975e+09 2.34397
1.42091375e+09 2.34964
1.42091775e+09 2.33643
1.42092175e+09 2.34767
1.42092575e+09 2.34512
1.42092975e+09 2.34663
1.42093375e+09 2.36246
1.42093775e+09 2.32862
1.42094175e+09 2.33505
1.42094575e+09 2.33458
1.42094975e+09 2.30341
1.42095375e+09 2.32984
1.42095775e+09 2.33374
1.42096175e+09 2.34325
1.42096575e+09 2.33484
1.42096975e+09 2.33562
1.42097375e+09 2.33568
1.42097775e+09 2.31296
1.42098175e+09 2.32116
1.42098575e+09 2.32381
1.42098975e+09 2.3259
1.42099375e+09 2.30479
1.42099775e+09 2.31311
1.42100175e+09 2.29627
1.42100575e+09 2.2867
1.42100975e+09 2.28251
1.42101375e+09 2.29168
1.42101775e+09 2.26556
1.42102175e+09 2.27369
1.42102575e+09 2.26186
1.42102975e+09 2.27346
1.42103375e+09 2.25376
1.42103775e+09 2.25321
1.42104175e+09 2.25998
1.42104575e+09 2.25336
1.42104975e+09 2.24446
1.42105375e+09 2.25954
1.42105775e+09 2.26116
1.42106175e+09 2.24885
1.42106575e+09 2.25795
1.42106975e+09 2.25627
1.42107375e+09 2.2715
1.42107775e+09 2.26676
1.42108175e+09 2.2487
1.42108575e+09 2.25738
1.42108975e+09 2.24555
1.42109375e+09 2.234
1.42109775e+09 2.24484
1.42110175e+09 2.25342
1.42110575e+09 2.24774
1.42110975e+09 2.25908
1.42111375e+09 2.23982
1.42111775e+09 2.24488
1.42112175e+09 2.24581
1.42112575e+09 2.2523
1.42112975e+09 2.24741
1.42113375e+09 2.23593
1.42113775e+09 2.25361
1.42114175e+09 2.24349
1.42114575e+09 2.24182
1.42114975e+09 2.25122
1.42115375e+09 2.23835
1.42115775e+09 2.23336
1.42116175e+09 2.24875
1.42116575e+09 2.25203
1.42116975e+09 2.23777
1.42117375e+09 2.24431
1.42117775e+09 2.23495
1.42118175e+09 2.23918
1.42118575e+09 2.24156
1.42118975e+09 2.23443
1.42119375e+09 2.24724
1.42119775e+09 2.24489
1.42120175e+09 2.2555
1.42120575e+09 2.23645
1.42120975e+09 2.248
1.42121375e+09 2.24899
1.42121775e+09 2.23753
1.42122175e+09 2.24723
1.42122575e+09 2.25313
1.42122975e+09 2.23708
1.42123375e+09 2.24039
1.42123775e+09 2.24513
1.42124175e+09 2.236
1.42124575e+09 2.23926
1.42124975e+09 2.25499
1.42125375e+09 2.24065
1.42125775e+09 2.22732
1.42126175e+09 2.23797
1.42126575e+09 2.24571
1.42126975e+09 2.22868
1.42127375e+09 2.24133
1.42127775e+09 2.24168
1.42128175e+09 2.23094
1.42128575e+09 2.23676
1.42128975e+09 2.21363
1.42129375e+09 2.2252
1.42129775e+09 2.2221
1.42130175e+09 2.21481
1.42130575e+09 2.22364
1.42130975e+09 2.21795
1.42131375e+09 2.20348
1.42131775e+09 2.20847
1.42132175e+09 2.21358
1.42132575e+09 2.20594
1.42132975e+09 2.18603
1.42133375e+09 2.20293
1.42133775e+09 2.18798
1.42134175e+09 2.1919
1.42134575e+09 2.19538
1.42134975e+09 2.18409
1.42135375e+09 2.16975
1.42135775e+09 2.1711
1.42136175e+09 2.16503
1.42136575e+09 2.15553
1.42136975e+09 2.14414
1.42137375e+09 2.14847
1.42137775e+09 2.14561
1.42138175e+09 2.14841
1.42138575e+09 2.1398
1.42138975e+09 2.13701
1.42139375e+09 2.11459
1.42139775e+09 2.11769
1.42140175e+09 2.10703


